#FORMAT	     : EMSA/MAS Spectral Data File
#VERSION     : 1.0
#TITLE       : 285eV
#DATE        : 
#TIME        : 
#OWNER       : Michael Entrup
#NPOINTS     : 1024
#NCOLUMNS    : 1
#XUNITS      : eV
#YUNITS      : e-
#DATATYPE    : XY
#XPERCHAN    : 9.836066e-002
#OFFSET      : 2.346393e+002
#SIGNALTYPE  : ELS
#BEAMKV      : 200000.000000
#MAGCAM      : 125000.000000
#EMISSION    : 0.000000
#PROBECUR    : 0.000000
#BEAMDIAM    : 0.000000
#SPECTRUM    : Spectral Data Starts Here
2.346393e+002, 3.022849e+002
2.347377e+002, 3.022849e+002
2.348361e+002, 3.022849e+002
2.349344e+002, 3.034946e+002
2.350328e+002, 3.051075e+002
2.351311e+002, 3.209677e+002
2.352295e+002, 3.357525e+002
2.353279e+002, 3.048387e+002
2.354262e+002, 3.489247e+002
2.355246e+002, 3.436827e+002
2.356230e+002, 2.811829e+002
2.357213e+002, 3.060484e+002
2.358197e+002, 3.321235e+002
2.359180e+002, 3.739245e+002
2.360164e+002, 2.751344e+002
2.361147e+002, 2.782259e+002
2.362131e+002, 3.379032e+002
2.363115e+002, 3.591398e+002
2.364098e+002, 2.564518e+002
2.365082e+002, 2.905916e+002
2.366066e+002, 3.373655e+002
2.367049e+002, 3.122312e+002
2.368033e+002, 2.877689e+002
2.369016e+002, 2.784947e+002
2.370000e+002, 2.581989e+002
2.370984e+002, 3.221774e+002
2.371967e+002, 3.279570e+002
2.372951e+002, 2.836021e+002
2.373934e+002, 3.024193e+002
2.374918e+002, 3.079301e+002
2.375902e+002, 2.892473e+002
2.376885e+002, 2.810484e+002
2.377869e+002, 2.728495e+002
2.378852e+002, 3.087367e+002
2.379836e+002, 2.969086e+002
2.380820e+002, 2.889785e+002
2.381803e+002, 2.995967e+002
2.382787e+002, 3.249999e+002
2.383770e+002, 3.034946e+002
2.384754e+002, 3.334679e+002
2.385738e+002, 2.620968e+002
2.386721e+002, 2.907258e+002
2.387705e+002, 3.255375e+002
2.388689e+002, 3.134409e+002
2.389672e+002, 2.872312e+002
2.390656e+002, 2.668011e+002
2.391639e+002, 2.692205e+002
2.392623e+002, 3.006721e+002
2.393607e+002, 2.517473e+002
2.394590e+002, 2.887096e+002
2.395574e+002, 2.591398e+002
2.396557e+002, 2.717742e+002
2.397541e+002, 2.961022e+002
2.398525e+002, 2.713710e+002
2.399508e+002, 2.715054e+002
2.400492e+002, 2.462366e+002
2.401475e+002, 3.161290e+002
2.402459e+002, 3.290323e+002
2.403443e+002, 2.482527e+002
2.404426e+002, 2.877688e+002
2.405410e+002, 2.698925e+002
2.406393e+002, 2.735215e+002
2.407377e+002, 2.505376e+002
2.408361e+002, 2.836021e+002
2.409344e+002, 2.643818e+002
2.410328e+002, 2.325270e+002
2.411311e+002, 2.892473e+002
2.412295e+002, 3.212366e+002
2.413279e+002, 3.513440e+002
2.414262e+002, 2.731183e+002
2.415246e+002, 2.876345e+002
2.416230e+002, 3.001344e+002
2.417213e+002, 2.599462e+002
2.418197e+002, 2.498656e+002
2.419180e+002, 2.637097e+002
2.420164e+002, 2.661290e+002
2.421147e+002, 2.229840e+002
2.422131e+002, 2.663979e+002
2.423115e+002, 2.595431e+002
2.424098e+002, 2.942205e+002
2.425082e+002, 2.846774e+002
2.426066e+002, 2.650537e+002
2.427049e+002, 2.506721e+002
2.428033e+002, 2.786291e+002
2.429016e+002, 2.731183e+002
2.430000e+002, 2.955645e+002
2.430984e+002, 2.587366e+002
2.431967e+002, 2.412634e+002
2.432951e+002, 2.719086e+002
2.433934e+002, 3.045699e+002
2.434918e+002, 2.775538e+002
2.435902e+002, 2.567206e+002
2.436885e+002, 2.385752e+002
2.437869e+002, 2.952957e+002
2.438852e+002, 2.860215e+002
2.439836e+002, 2.603494e+002
2.440820e+002, 2.696236e+002
2.441803e+002, 2.681452e+002
2.442787e+002, 2.772850e+002
2.443770e+002, 2.412634e+002
2.444754e+002, 2.528226e+002
2.445738e+002, 2.751344e+002
2.446721e+002, 3.278225e+002
2.447705e+002, 2.784947e+002
2.448689e+002, 2.930107e+002
2.449672e+002, 2.858872e+002
2.450656e+002, 2.482527e+002
2.451639e+002, 2.532258e+002
2.452623e+002, 2.823924e+002
2.453607e+002, 2.635753e+002
2.454590e+002, 2.637097e+002
2.455574e+002, 2.905914e+002
2.456557e+002, 2.697581e+002
2.457541e+002, 2.510752e+002
2.458525e+002, 2.600807e+002
2.459508e+002, 2.517473e+002
2.460492e+002, 2.614247e+002
2.461475e+002, 2.697581e+002
2.462459e+002, 2.427420e+002
2.463443e+002, 2.349463e+002
2.464426e+002, 2.763440e+002
2.465410e+002, 2.545699e+002
2.466393e+002, 3.094087e+002
2.467377e+002, 2.994622e+002
2.468361e+002, 2.775538e+002
2.469344e+002, 2.387097e+002
2.470328e+002, 2.243280e+002
2.471311e+002, 2.989247e+002
2.472295e+002, 3.227150e+002
2.473279e+002, 2.393817e+002
2.474262e+002, 2.376344e+002
2.475246e+002, 2.524194e+002
2.476230e+002, 2.388441e+002
2.477213e+002, 2.231182e+002
2.478197e+002, 2.732526e+002
2.479180e+002, 2.459677e+002
2.480164e+002, 2.506721e+002
2.481147e+002, 2.686828e+002
2.482131e+002, 2.477151e+002
2.483115e+002, 2.577957e+002
2.484098e+002, 2.998656e+002
2.485082e+002, 2.787635e+002
2.486066e+002, 2.706989e+002
2.487049e+002, 2.803763e+002
2.488033e+002, 2.577957e+002
2.489016e+002, 2.569892e+002
2.490000e+002, 2.712365e+002
2.490984e+002, 2.650538e+002
2.491967e+002, 2.090054e+002
2.492951e+002, 2.643818e+002
2.493934e+002, 2.516129e+002
2.494918e+002, 2.532258e+002
2.495902e+002, 1.931452e+002
2.496885e+002, 2.440860e+002
2.497869e+002, 2.334678e+002
2.498852e+002, 2.325269e+002
2.499836e+002, 2.522850e+002
2.500820e+002, 2.389785e+002
2.501803e+002, 2.338710e+002
2.502787e+002, 2.428763e+002
2.503770e+002, 2.790323e+002
2.504754e+002, 2.491935e+002
2.505738e+002, 2.307796e+002
2.506721e+002, 2.623656e+002
2.507705e+002, 2.784946e+002
2.508689e+002, 2.572581e+002
2.509672e+002, 2.463710e+002
2.510656e+002, 2.553763e+002
2.511639e+002, 2.631720e+002
2.512623e+002, 1.975807e+002
2.513607e+002, 2.529570e+002
2.514590e+002, 2.403226e+002
2.515574e+002, 2.413979e+002
2.516557e+002, 2.395162e+002
2.517541e+002, 2.508065e+002
2.518525e+002, 2.573924e+002
2.519508e+002, 2.395161e+002
2.520492e+002, 2.450269e+002
2.521475e+002, 2.530914e+002
2.522459e+002, 2.262097e+002
2.523443e+002, 2.498656e+002
2.524426e+002, 2.494624e+002
2.525410e+002, 2.465054e+002
2.526393e+002, 2.568548e+002
2.527377e+002, 2.319893e+002
2.528361e+002, 2.427419e+002
2.529344e+002, 2.529570e+002
2.530328e+002, 2.399194e+002
2.531311e+002, 2.657258e+002
2.532295e+002, 2.651882e+002
2.533279e+002, 2.244624e+002
2.534262e+002, 2.182796e+002
2.535246e+002, 2.506721e+002
2.536230e+002, 2.068549e+002
2.537213e+002, 2.635753e+002
2.538197e+002, 2.356183e+002
2.539180e+002, 2.341398e+002
2.540164e+002, 2.528226e+002
2.541147e+002, 2.076613e+002
2.542131e+002, 2.317204e+002
2.543115e+002, 2.266129e+002
2.544098e+002, 2.301076e+002
2.545082e+002, 2.407258e+002
2.546066e+002, 2.887096e+002
2.547049e+002, 2.396505e+002
2.548033e+002, 2.149194e+002
2.549016e+002, 2.108870e+002
2.550000e+002, 2.248656e+002
2.550984e+002, 2.172043e+002
2.551967e+002, 2.099463e+002
2.552951e+002, 2.255377e+002
2.553934e+002, 2.282258e+002
2.554918e+002, 2.608871e+002
2.555902e+002, 2.505377e+002
2.556885e+002, 2.361559e+002
2.557869e+002, 1.971774e+002
2.558853e+002, 2.153226e+002
2.559836e+002, 2.631721e+002
2.560820e+002, 2.049731e+002
2.561803e+002, 2.370968e+002
2.562787e+002, 2.543011e+002
2.563770e+002, 1.931452e+002
2.564754e+002, 1.772850e+002
2.565738e+002, 2.092742e+002
2.566721e+002, 2.142473e+002
2.567705e+002, 2.092742e+002
2.568689e+002, 2.228495e+002
2.569672e+002, 2.056452e+002
2.570656e+002, 2.084677e+002
2.571639e+002, 2.423387e+002
2.572623e+002, 2.447581e+002
2.573607e+002, 2.438172e+002
2.574590e+002, 2.525537e+002
2.575574e+002, 2.275538e+002
2.576557e+002, 2.267473e+002
2.577541e+002, 1.809140e+002
2.578524e+002, 2.434140e+002
2.579508e+002, 2.228495e+002
2.580492e+002, 2.559140e+002
2.581476e+002, 2.310483e+002
2.582459e+002, 2.252688e+002
2.583443e+002, 2.114247e+002
2.584426e+002, 2.311829e+002
2.585410e+002, 2.245968e+002
2.586393e+002, 2.366935e+002
2.587377e+002, 1.896507e+002
2.588361e+002, 2.264785e+002
2.589344e+002, 1.848118e+002
2.590328e+002, 2.301075e+002
2.591311e+002, 2.139785e+002
2.592295e+002, 2.498656e+002
2.593279e+002, 2.010752e+002
2.594262e+002, 1.928764e+002
2.595246e+002, 2.241936e+002
2.596230e+002, 2.557795e+002
2.597213e+002, 2.538978e+002
2.598197e+002, 2.216398e+002
2.599180e+002, 2.077956e+002
2.600164e+002, 1.686828e+002
2.601147e+002, 1.904570e+002
2.602131e+002, 2.086022e+002
2.603115e+002, 2.278226e+002
2.604099e+002, 1.966398e+002
2.605082e+002, 2.138442e+002
2.606066e+002, 2.356183e+002
2.607049e+002, 1.919355e+002
2.608033e+002, 1.744623e+002
2.609016e+002, 2.064516e+002
2.610000e+002, 2.157258e+002
2.610984e+002, 2.052420e+002
2.611967e+002, 1.946236e+002
2.612951e+002, 1.923387e+002
2.613934e+002, 2.239247e+002
2.614918e+002, 1.926075e+002
2.615901e+002, 2.184140e+002
2.616885e+002, 2.040323e+002
2.617869e+002, 2.071237e+002
2.618853e+002, 2.391128e+002
2.619836e+002, 2.012097e+002
2.620820e+002, 2.243279e+002
2.621803e+002, 1.879033e+002
2.622787e+002, 2.024193e+002
2.623770e+002, 2.100807e+002
2.624754e+002, 2.133064e+002
2.625738e+002, 1.698925e+002
2.626721e+002, 2.108871e+002
2.627705e+002, 1.924732e+002
2.628689e+002, 1.924731e+002
2.629672e+002, 1.689516e+002
2.630656e+002, 2.071236e+002
2.631639e+002, 1.762097e+002
2.632623e+002, 1.771505e+002
2.633607e+002, 1.797043e+002
2.634590e+002, 1.869624e+002
2.635574e+002, 1.979839e+002
2.636557e+002, 2.153225e+002
2.637541e+002, 2.204301e+002
2.638524e+002, 1.595431e+002
2.639508e+002, 1.956989e+002
2.640492e+002, 1.986560e+002
2.641476e+002, 2.103494e+002
2.642459e+002, 2.099463e+002
2.643443e+002, 2.270161e+002
2.644426e+002, 2.290322e+002
2.645410e+002, 2.014785e+002
2.646393e+002, 1.686828e+002
2.647377e+002, 1.643817e+002
2.648361e+002, 1.870968e+002
2.649344e+002, 2.056452e+002
2.650328e+002, 2.138441e+002
2.651311e+002, 2.268817e+002
2.652295e+002, 2.127689e+002
2.653279e+002, 1.915322e+002
2.654262e+002, 1.922043e+002
2.655246e+002, 1.729840e+002
2.656230e+002, 2.229839e+002
2.657213e+002, 1.966398e+002
2.658197e+002, 1.831989e+002
2.659180e+002, 1.668011e+002
2.660164e+002, 1.942205e+002
2.661147e+002, 1.844086e+002
2.662131e+002, 1.603495e+002
2.663115e+002, 1.944893e+002
2.664099e+002, 1.971775e+002
2.665082e+002, 2.100806e+002
2.666066e+002, 1.807796e+002
2.667049e+002, 1.711022e+002
2.668033e+002, 2.188172e+002
2.669016e+002, 1.775538e+002
2.670000e+002, 2.013441e+002
2.670984e+002, 1.801075e+002
2.671967e+002, 1.852151e+002
2.672951e+002, 1.729839e+002
2.673934e+002, 1.958334e+002
2.674918e+002, 1.814516e+002
2.675901e+002, 1.607527e+002
2.676885e+002, 1.772849e+002
2.677869e+002, 1.629033e+002
2.678853e+002, 1.880377e+002
2.679836e+002, 2.254032e+002
2.680820e+002, 2.048387e+002
2.681803e+002, 1.870968e+002
2.682787e+002, 2.268817e+002
2.683770e+002, 2.071237e+002
2.684754e+002, 2.087366e+002
2.685738e+002, 2.043010e+002
2.686721e+002, 1.981182e+002
2.687705e+002, 1.762097e+002
2.688688e+002, 1.775538e+002
2.689672e+002, 1.887097e+002
2.690656e+002, 2.168010e+002
2.691639e+002, 2.026882e+002
2.692623e+002, 1.637097e+002
2.693607e+002, 1.868279e+002
2.694590e+002, 1.934139e+002
2.695574e+002, 1.971774e+002
2.696557e+002, 2.147849e+002
2.697541e+002, 1.677420e+002
2.698524e+002, 1.810484e+002
2.699508e+002, 1.989247e+002
2.700492e+002, 1.650538e+002
2.701476e+002, 1.815860e+002
2.702459e+002, 1.994624e+002
2.703443e+002, 1.783602e+002
2.704426e+002, 1.920699e+002
2.705410e+002, 1.715054e+002
2.706393e+002, 1.587366e+002
2.707377e+002, 1.662634e+002
2.708361e+002, 1.739247e+002
2.709344e+002, 2.010753e+002
2.710328e+002, 2.329300e+002
2.711311e+002, 1.814517e+002
2.712295e+002, 1.865591e+002
2.713279e+002, 2.041667e+002
2.714262e+002, 1.879032e+002
2.715246e+002, 1.752688e+002
2.716230e+002, 1.885752e+002
2.717213e+002, 1.833333e+002
2.718197e+002, 1.885753e+002
2.719180e+002, 1.934140e+002
2.720164e+002, 1.771505e+002
2.721147e+002, 1.815860e+002
2.722131e+002, 1.647850e+002
2.723115e+002, 2.090054e+002
2.724099e+002, 2.072581e+002
2.725082e+002, 1.806452e+002
2.726066e+002, 1.829301e+002
2.727049e+002, 1.706989e+002
2.728033e+002, 1.868280e+002
2.729016e+002, 1.897850e+002
2.730000e+002, 1.809139e+002
2.730984e+002, 1.473118e+002
2.731967e+002, 1.450269e+002
2.732951e+002, 1.946236e+002
2.733934e+002, 1.697581e+002
2.734918e+002, 1.482527e+002
2.735901e+002, 1.895162e+002
2.736885e+002, 2.018817e+002
2.737869e+002, 1.776882e+002
2.738853e+002, 1.651882e+002
2.739836e+002, 1.883065e+002
2.740820e+002, 2.045699e+002
2.741803e+002, 1.908602e+002
2.742787e+002, 1.606183e+002
2.743770e+002, 1.669355e+002
2.744754e+002, 1.701613e+002
2.745738e+002, 1.803764e+002
2.746721e+002, 1.907257e+002
2.747705e+002, 1.630376e+002
2.748688e+002, 1.376344e+002
2.749672e+002, -1.619618e+002
2.750656e+002, 1.635746e+002
2.751639e+002, 1.375000e+002
2.752623e+002, 1.590054e+002
2.753607e+002, 1.650538e+002
2.754590e+002, 1.737903e+002
2.755574e+002, 1.606183e+002
2.756557e+002, 1.627688e+002
2.757541e+002, 1.481183e+002
2.758524e+002, 1.748656e+002
2.759508e+002, 1.678764e+002
2.760492e+002, 1.575269e+002
2.761476e+002, 1.485215e+002
2.762459e+002, 1.684140e+002
2.763443e+002, 1.313172e+002
2.764426e+002, 1.452957e+002
2.765410e+002, 1.317204e+002
2.766393e+002, 1.486559e+002
2.767377e+002, 1.622312e+002
2.768361e+002, 1.358871e+002
2.769344e+002, 1.630377e+002
2.770328e+002, 1.693549e+002
2.771312e+002, 1.443548e+002
2.772295e+002, 1.697581e+002
2.773279e+002, 1.810484e+002
2.774262e+002, 1.611559e+002
2.775246e+002, 1.688172e+002
2.776230e+002, 1.770162e+002
2.777213e+002, 1.658602e+002
2.778197e+002, 1.564516e+002
2.779180e+002, 1.325269e+002
2.780164e+002, 1.697581e+002
2.781147e+002, 1.676075e+002
2.782131e+002, 1.736559e+002
2.783115e+002, 1.387097e+002
2.784099e+002, 1.919355e+002
2.785082e+002, 1.729839e+002
2.786066e+002, 1.663979e+002
2.787049e+002, 1.364247e+002
2.788033e+002, 1.482527e+002
2.789016e+002, 1.673387e+002
2.790000e+002, 1.610215e+002
2.790984e+002, 1.330645e+002
2.791967e+002, 1.529570e+002
2.792951e+002, 1.676075e+002
2.793934e+002, 1.500000e+002
2.794918e+002, 1.747312e+002
2.795901e+002, 1.665323e+002
2.796885e+002, 1.588709e+002
2.797869e+002, 1.602150e+002
2.798853e+002, 1.760753e+002
2.799836e+002, 1.869623e+002
2.800820e+002, 1.747312e+002
2.801803e+002, 1.434140e+002
2.802787e+002, 1.564516e+002
2.803770e+002, 1.567204e+002
2.804754e+002, 1.873656e+002
2.805738e+002, 1.934140e+002
2.806721e+002, 1.881721e+002
2.807705e+002, 1.606183e+002
2.808688e+002, 1.940860e+002
2.809672e+002, 1.625000e+002
2.810656e+002, 1.295699e+002
2.811639e+002, 1.750000e+002
2.812623e+002, 1.447581e+002
2.813607e+002, 1.903226e+002
2.814590e+002, 1.829301e+002
2.815574e+002, 1.361560e+002
2.816557e+002, 2.040322e+002
2.817541e+002, 1.740591e+002
2.818524e+002, 1.633065e+002
2.819508e+002, 1.501344e+002
2.820492e+002, 1.696236e+002
2.821476e+002, 1.590054e+002
2.822459e+002, 1.662634e+002
2.823443e+002, 1.696237e+002
2.824426e+002, 1.700269e+002
2.825410e+002, 1.740592e+002
2.826393e+002, 1.670699e+002
2.827377e+002, 2.931451e+002
2.828361e+002, 1.702958e+002
2.829344e+002, 1.779570e+002
2.830328e+002, 1.862903e+002
2.831312e+002, 2.177420e+002
2.832295e+002, 2.237903e+002
2.833279e+002, 2.340054e+002
2.834262e+002, 2.303763e+002
2.835246e+002, 2.569893e+002
2.836230e+002, 2.751345e+002
2.837213e+002, 3.134408e+002
2.838197e+002, 3.227151e+002
2.839180e+002, 3.399194e+002
2.840164e+002, 4.104839e+002
2.841147e+002, 5.037635e+002
2.842131e+002, 5.329301e+002
2.843115e+002, 5.315861e+002
2.844099e+002, 6.240591e+002
2.845082e+002, 7.215054e+002
2.846066e+002, 8.131721e+002
2.847049e+002, 9.185484e+002
2.848033e+002, 9.600807e+002
2.849016e+002, 1.021640e+003
2.850000e+002, 1.057124e+003
2.850984e+002, 1.101882e+003
2.851967e+002, 1.187097e+003
2.852951e+002, 1.231720e+003
2.853934e+002, 1.212366e+003
2.854918e+002, 1.233468e+003
2.855901e+002, 1.152823e+003
2.856885e+002, 1.232124e+003
2.857869e+002, 1.272849e+003
2.858853e+002, 1.288038e+003
2.859836e+002, 1.180780e+003
2.860820e+002, 1.148118e+003
2.861803e+002, 1.141532e+003
2.862787e+002, 1.165323e+003
2.863770e+002, 1.080914e+003
2.864754e+002, 1.045699e+003
2.865738e+002, 1.125000e+003
2.866721e+002, 1.071640e+003
2.867705e+002, 1.105645e+003
2.868688e+002, 1.030914e+003
2.869672e+002, 1.006989e+003
2.870656e+002, 9.521506e+002
2.871639e+002, 9.907259e+002
2.872623e+002, 1.005108e+003
2.873607e+002, 9.939517e+002
2.874590e+002, 9.973119e+002
2.875574e+002, 9.405915e+002
2.876557e+002, 9.845430e+002
2.877541e+002, 9.208334e+002
2.878524e+002, 9.392474e+002
2.879508e+002, 9.149194e+002
2.880492e+002, 8.673388e+002
2.881476e+002, 8.756721e+002
2.882459e+002, 8.510753e+002
2.883443e+002, 8.629033e+002
2.884426e+002, 9.213710e+002
2.885410e+002, 9.430108e+002
2.886393e+002, 9.603495e+002
2.887377e+002, 9.037636e+002
2.888361e+002, 8.775539e+002
2.889344e+002, 9.891130e+002
2.890328e+002, 9.184141e+002
2.891312e+002, 1.027151e+003
2.892295e+002, 1.012634e+003
2.893279e+002, 1.059274e+003
2.894262e+002, 1.052688e+003
2.895246e+002, 9.690861e+002
2.896230e+002, 1.007258e+003
2.897213e+002, 1.091129e+003
2.898197e+002, 1.010618e+003
2.899180e+002, 1.091801e+003
2.900164e+002, 1.150672e+003
2.901147e+002, 1.181049e+003
2.902131e+002, 1.200538e+003
2.903115e+002, 1.221505e+003
2.904099e+002, 1.224866e+003
2.905082e+002, 1.318011e+003
2.906066e+002, 1.395833e+003
2.907049e+002, 1.386559e+003
2.908033e+002, 1.436694e+003
2.909016e+002, 1.492204e+003
2.910000e+002, 1.441398e+003
2.910984e+002, 1.451210e+003
2.911967e+002, 1.584005e+003
2.912951e+002, 1.575672e+003
2.913934e+002, 1.629570e+003
2.914918e+002, 1.692742e+003
2.915901e+002, 1.730108e+003
2.916885e+002, 1.813844e+003
2.917869e+002, 1.772312e+003
2.918853e+002, 1.770968e+003
2.919836e+002, 1.798253e+003
2.920820e+002, 1.815188e+003
2.921803e+002, 1.884812e+003
2.922787e+002, 1.849731e+003
2.923770e+002, 1.884140e+003
2.924754e+002, 1.946640e+003
2.925738e+002, 1.945699e+003
2.926721e+002, 1.884543e+003
2.927705e+002, 1.911962e+003
2.928688e+002, 1.945027e+003
2.929672e+002, 1.899597e+003
2.930656e+002, 1.938037e+003
2.931639e+002, 1.972715e+003
2.932623e+002, 1.948118e+003
2.933607e+002, 1.898925e+003
2.934590e+002, 2.012635e+003
2.935574e+002, 2.002016e+003
2.936557e+002, 2.010081e+003
2.937541e+002, 1.969220e+003
2.938524e+002, 1.948387e+003
2.939508e+002, 1.849463e+003
2.940492e+002, 1.914785e+003
2.941476e+002, 1.934409e+003
2.942459e+002, 1.904839e+003
2.943443e+002, 1.848119e+003
2.944426e+002, 1.959947e+003
2.945410e+002, 1.877688e+003
2.946393e+002, 1.898656e+003
2.947377e+002, 1.932930e+003
2.948361e+002, 1.786694e+003
2.949344e+002, 1.880376e+003
2.950328e+002, 1.835753e+003
2.951312e+002, 1.951747e+003
2.952295e+002, 1.858199e+003
2.953279e+002, 1.777688e+003
2.954262e+002, 1.892473e+003
2.955246e+002, 1.893817e+003
2.956230e+002, 1.827688e+003
2.957213e+002, 1.849194e+003
2.958197e+002, 1.900000e+003
2.959180e+002, 1.874462e+003
2.960164e+002, 1.905780e+003
2.961147e+002, 1.843683e+003
2.962131e+002, 1.937366e+003
2.963115e+002, 1.917204e+003
2.964099e+002, 1.805242e+003
2.965082e+002, 1.862231e+003
2.966066e+002, 1.922715e+003
2.967049e+002, 1.858602e+003
2.968033e+002, 1.872178e+003
2.969016e+002, 1.872984e+003
2.970000e+002, 2.044892e+003
2.970984e+002, 1.895968e+003
2.971967e+002, 1.867608e+003
2.972951e+002, 1.971774e+003
2.973934e+002, 1.912903e+003
2.974918e+002, 1.810484e+003
2.975901e+002, 1.860619e+003
2.976885e+002, 1.845161e+003
2.977869e+002, 1.899193e+003
2.978853e+002, 1.896371e+003
2.979836e+002, 1.964785e+003
2.980820e+002, 1.959140e+003
2.981803e+002, 1.860081e+003
2.982787e+002, 1.931586e+003
2.983770e+002, 1.848253e+003
2.984754e+002, 1.916532e+003
2.985738e+002, 1.860081e+003
2.986721e+002, 1.845296e+003
2.987705e+002, 1.957124e+003
2.988688e+002, 1.897984e+003
2.989672e+002, 1.919490e+003
2.990656e+002, 1.863172e+003
2.991639e+002, 2.020296e+003
2.992623e+002, 2.002420e+003
2.993607e+002, 1.872312e+003
2.994590e+002, 1.912231e+003
2.995574e+002, 1.915860e+003
2.996557e+002, 1.875537e+003
2.997541e+002, 1.855914e+003
2.998525e+002, 1.907258e+003
2.999508e+002, 1.852017e+003
3.000492e+002, 1.953091e+003
3.001476e+002, 1.825403e+003
3.002459e+002, 1.889113e+003
3.003443e+002, 1.921774e+003
3.004426e+002, 1.860619e+003
3.005410e+002, 1.856452e+003
3.006393e+002, 1.777823e+003
3.007377e+002, 1.759005e+003
3.008361e+002, 1.811559e+003
3.009344e+002, 1.842070e+003
3.010328e+002, 1.836559e+003
3.011312e+002, 1.776882e+003
3.012295e+002, 1.896237e+003
3.013279e+002, 1.808871e+003
3.014262e+002, 1.701479e+003
3.015246e+002, 1.776479e+003
3.016230e+002, 1.887500e+003
3.017213e+002, 1.844489e+003
3.018197e+002, 1.893549e+003
3.019180e+002, 1.846102e+003
3.020164e+002, 1.801479e+003
3.021147e+002, 1.831317e+003
3.022131e+002, 1.970430e+003
3.023115e+002, 1.763844e+003
3.024099e+002, 1.831990e+003
3.025082e+002, 1.845968e+003
3.026066e+002, 1.744758e+003
3.027049e+002, 1.754973e+003
3.028033e+002, 1.805243e+003
3.029016e+002, 1.802688e+003
3.030000e+002, 1.780780e+003
3.030984e+002, 1.829032e+003
3.031967e+002, 1.794758e+003
3.032951e+002, 1.729705e+003
3.033934e+002, 1.735484e+003
3.034918e+002, 1.730108e+003
3.035901e+002, 1.709543e+003
3.036885e+002, 1.776747e+003
3.037869e+002, 1.728226e+003
3.038853e+002, 1.696640e+003
3.039836e+002, 1.713307e+003
3.040820e+002, 1.793280e+003
3.041803e+002, 1.717070e+003
3.042787e+002, 1.753763e+003
3.043770e+002, 1.789247e+003
3.044754e+002, 1.695564e+003
3.045738e+002, 1.712366e+003
3.046721e+002, 1.784140e+003
3.047705e+002, 1.614247e+003
3.048688e+002, 1.654032e+003
3.049672e+002, 1.648253e+003
3.050656e+002, 1.711022e+003
3.051639e+002, 1.655242e+003
3.052623e+002, 1.670699e+003
3.053607e+002, 1.769758e+003
3.054590e+002, 1.568817e+003
3.055574e+002, 1.547177e+003
3.056557e+002, 1.625269e+003
3.057541e+002, 1.665188e+003
3.058525e+002, 1.608199e+003
3.059508e+002, 1.616532e+003
3.060492e+002, 1.596103e+003
3.061476e+002, 1.582796e+003
3.062459e+002, 1.657124e+003
3.063443e+002, 1.634946e+003
3.064426e+002, 1.593414e+003
3.065410e+002, 1.691667e+003
3.066393e+002, 1.584140e+003
3.067377e+002, 1.601882e+003
3.068361e+002, 1.578360e+003
3.069344e+002, 1.609409e+003
3.070328e+002, 1.578495e+003
3.071312e+002, 1.650941e+003
3.072295e+002, 1.580511e+003
3.073279e+002, 1.545430e+003
3.074262e+002, 1.563710e+003
3.075246e+002, 1.515323e+003
3.076230e+002, 1.582661e+003
3.077213e+002, 1.519220e+003
3.078197e+002, 1.501210e+003
3.079180e+002, 1.459946e+003
3.080164e+002, 1.492877e+003
3.081147e+002, 1.536290e+003
3.082131e+002, 1.521774e+003
3.083115e+002, 1.397043e+003
3.084099e+002, 1.354167e+003
3.085082e+002, 1.374463e+003
3.086066e+002, 1.533468e+003
3.087049e+002, 1.440054e+003
3.088033e+002, 1.456317e+003
3.089016e+002, 1.390995e+003
3.090000e+002, 1.408871e+003
3.090984e+002, 1.443011e+003
3.091967e+002, 1.401747e+003
3.092951e+002, 1.529301e+003
3.093934e+002, 1.465457e+003
3.094918e+002, 1.486828e+003
3.095901e+002, 1.460484e+003
3.096885e+002, 1.315188e+003
3.097869e+002, 1.344489e+003
3.098853e+002, 1.330511e+003
3.099836e+002, 1.337500e+003
3.100820e+002, 1.377151e+003
3.101803e+002, 1.265188e+003
3.102787e+002, 1.370027e+003
3.103770e+002, 1.346371e+003
3.104754e+002, 1.258468e+003
3.105738e+002, 1.282124e+003
3.106721e+002, 1.395968e+003
3.107705e+002, 1.351479e+003
3.108688e+002, 1.283737e+003
3.109672e+002, 1.300672e+003
3.110656e+002, 1.298387e+003
3.111639e+002, 1.213307e+003
3.112623e+002, 1.268548e+003
3.113607e+002, 1.348387e+003
3.114590e+002, 1.324194e+003
3.115574e+002, 1.318146e+003
3.116557e+002, 1.300269e+003
3.117541e+002, 1.350269e+003
3.118525e+002, 1.314651e+003
3.119508e+002, 1.357527e+003
3.120492e+002, 1.313844e+003
3.121476e+002, 1.324463e+003
3.122459e+002, 1.309946e+003
3.123443e+002, 1.294221e+003
3.124426e+002, 1.256317e+003
3.125410e+002, 1.203898e+003
3.126393e+002, 1.298522e+003
3.127377e+002, 1.253226e+003
3.128361e+002, 1.222177e+003
3.129344e+002, 1.202823e+003
3.130328e+002, 1.236156e+003
3.131312e+002, 1.244489e+003
3.132295e+002, 1.248118e+003
3.133279e+002, 1.254704e+003
3.134262e+002, 1.248387e+003
3.135246e+002, 1.195968e+003
3.136230e+002, 1.256989e+003
3.137213e+002, 1.296909e+003
3.138197e+002, 1.233334e+003
3.139180e+002, 1.267876e+003
3.140164e+002, 1.320699e+003
3.141147e+002, 1.220430e+003
3.142131e+002, 1.219893e+003
3.143115e+002, 1.263172e+003
3.144099e+002, 1.215860e+003
3.145082e+002, 1.259677e+003
3.146066e+002, 1.266667e+003
3.147049e+002, 1.201613e+003
3.148033e+002, 1.150672e+003
3.149016e+002, 1.234543e+003
3.150000e+002, 1.197715e+003
3.150984e+002, 1.256721e+003
3.151967e+002, 1.249194e+003
3.152951e+002, 1.314785e+003
3.153934e+002, 1.225000e+003
3.154918e+002, 1.197312e+003
3.155901e+002, 1.215323e+003
3.156885e+002, 1.229839e+003
3.157869e+002, 1.162769e+003
3.158853e+002, 1.265457e+003
3.159836e+002, 1.201479e+003
3.160820e+002, 1.196505e+003
3.161803e+002, 1.184140e+003
3.162787e+002, 1.239113e+003
3.163770e+002, 1.325269e+003
3.164754e+002, 1.244221e+003
3.165738e+002, 1.281855e+003
3.166721e+002, 1.224866e+003
3.167705e+002, 1.214651e+003
3.168688e+002, 1.153495e+003
3.169672e+002, 1.229570e+003
3.170656e+002, 1.233065e+003
3.171639e+002, 1.207393e+003
3.172623e+002, 1.245161e+003
3.173607e+002, 1.281452e+003
3.174590e+002, 1.261559e+003
3.175574e+002, 1.244490e+003
3.176557e+002, 1.230646e+003
3.177541e+002, 1.227150e+003
3.178525e+002, 1.295565e+003
3.179508e+002, 1.215323e+003
3.180492e+002, 1.257527e+003
3.181476e+002, 1.177688e+003
3.182459e+002, 1.299328e+003
3.183443e+002, 1.260215e+003
3.184426e+002, 1.225000e+003
3.185410e+002, 1.140995e+003
3.186393e+002, 1.156452e+003
3.187377e+002, 1.312231e+003
3.188361e+002, 1.251747e+003
3.189344e+002, 1.285215e+003
3.190328e+002, 1.239113e+003
3.191312e+002, 1.165995e+003
3.192295e+002, 1.239919e+003
3.193279e+002, 1.211290e+003
3.194262e+002, 1.279167e+003
3.195246e+002, 1.332796e+003
3.196230e+002, 1.301344e+003
3.197213e+002, 1.301479e+003
3.198197e+002, 1.179032e+003
3.199180e+002, 1.197446e+003
3.200164e+002, 1.196237e+003
3.201147e+002, 1.195833e+003
3.202131e+002, 1.254570e+003
3.203115e+002, 1.152957e+003
3.204099e+002, 1.243952e+003
3.205082e+002, 1.271102e+003
3.206066e+002, 1.205914e+003
3.207049e+002, 1.273522e+003
3.208033e+002, 1.295699e+003
3.209016e+002, 1.259543e+003
3.210000e+002, 1.242204e+003
3.210984e+002, 1.224731e+003
3.211967e+002, 1.204436e+003
3.212951e+002, 1.303360e+003
3.213934e+002, 1.320968e+003
3.214918e+002, 1.338307e+003
3.215901e+002, 1.225941e+003
3.216885e+002, 1.290323e+003
3.217869e+002, 1.261559e+003
3.218853e+002, 1.316936e+003
3.219836e+002, 1.226478e+003
3.220820e+002, 1.248656e+003
3.221803e+002, 1.254435e+003
3.222787e+002, 1.232393e+003
3.223770e+002, 1.316264e+003
3.224754e+002, 1.256317e+003
3.225738e+002, 1.176344e+003
3.226721e+002, 1.262500e+003
3.227705e+002, 1.286425e+003
3.228688e+002, 1.317607e+003
3.229672e+002, 1.258737e+003
3.230656e+002, 1.312231e+003
3.231639e+002, 1.354436e+003
3.232623e+002, 1.352419e+003
3.233607e+002, 1.257527e+003
3.234590e+002, 1.191129e+003
3.235574e+002, 1.215860e+003
3.236557e+002, 1.229839e+003
3.237541e+002, 1.292607e+003
3.238525e+002, 1.168683e+003
3.239508e+002, 1.280511e+003
3.240492e+002, 1.247446e+003
3.241476e+002, 1.320430e+003
3.242459e+002, 1.206855e+003
3.243443e+002, 1.232930e+003
3.244426e+002, 1.231183e+003
3.245410e+002, 1.226478e+003
3.246393e+002, 1.244624e+003
3.247377e+002, 1.367876e+003
3.248361e+002, 1.290054e+003
3.249344e+002, 1.253360e+003
3.250328e+002, 1.204301e+003
3.251312e+002, 1.262366e+003
3.252295e+002, 1.325403e+003
3.253279e+002, 1.253495e+003
3.254262e+002, 1.196640e+003
3.255246e+002, 1.246236e+003
3.256230e+002, 1.217473e+003
3.257213e+002, 1.262903e+003
3.258197e+002, 1.227016e+003
3.259180e+002, 1.198790e+003
3.260164e+002, 1.215995e+003
3.261147e+002, 1.230108e+003
3.262131e+002, 1.264785e+003
3.263115e+002, 1.288844e+003
3.264099e+002, 1.177554e+003
3.265082e+002, 1.355242e+003
3.266066e+002, 1.342742e+003
3.267049e+002, 1.315591e+003
3.268033e+002, 1.168414e+003
3.269016e+002, 1.180108e+003
3.270000e+002, 1.205645e+003
3.270984e+002, 1.211425e+003
3.271967e+002, 1.242877e+003
3.272951e+002, 1.207393e+003
3.273934e+002, 1.264651e+003
3.274918e+002, 1.357796e+003
3.275901e+002, 1.346506e+003
3.276885e+002, 1.264785e+003
3.277869e+002, 1.237097e+003
3.278853e+002, 1.282930e+003
3.279836e+002, 1.230108e+003
3.280820e+002, 1.238038e+003
3.281803e+002, 1.268548e+003
3.282787e+002, 1.304435e+003
3.283770e+002, 1.261559e+003
3.284754e+002, 1.139919e+003
3.285738e+002, 1.175403e+003
3.286721e+002, 1.173791e+003
3.287705e+002, 1.227419e+003
3.288688e+002, 1.262231e+003
3.289672e+002, 1.278629e+003
3.290656e+002, 1.173656e+003
3.291639e+002, 1.256183e+003
3.292623e+002, 1.225538e+003
3.293607e+002, 1.225538e+003
3.294590e+002, 1.257527e+003
3.295574e+002, 1.196371e+003
3.296557e+002, 1.257392e+003
3.297541e+002, 1.269221e+003
3.298525e+002, 1.228360e+003
3.299508e+002, 1.314248e+003
3.300492e+002, 1.242876e+003
3.301476e+002, 1.282930e+003
3.302459e+002, 1.256989e+003
3.303443e+002, 1.258871e+003
3.304426e+002, 1.259543e+003
3.305410e+002, 1.258468e+003
3.306393e+002, 1.298925e+003
3.307377e+002, 1.145968e+003
3.308361e+002, 1.200672e+003
3.309344e+002, 1.196505e+003
3.310328e+002, 1.247581e+003
3.311312e+002, 1.109140e+003
3.312295e+002, 1.151747e+003
3.313279e+002, 1.138441e+003
3.314262e+002, 1.198925e+003
3.315246e+002, 1.221371e+003
3.316230e+002, 1.152823e+003
3.317213e+002, 1.172043e+003
3.318197e+002, 1.150538e+003
3.319180e+002, 1.159409e+003
3.320164e+002, 1.152554e+003
3.321147e+002, 1.265592e+003
3.322131e+002, 1.235618e+003
3.323115e+002, 1.161828e+003
3.324099e+002, 1.209947e+003
3.325082e+002, 1.216129e+003
3.326066e+002, 1.134140e+003
3.327049e+002, 1.232661e+003
3.328033e+002, 1.206049e+003
3.329016e+002, 1.215726e+003
3.330000e+002, 1.153226e+003
3.330984e+002, 1.110484e+003
3.331967e+002, 1.163575e+003
3.332951e+002, 1.257123e+003
3.333934e+002, 1.210484e+003
3.334918e+002, 1.147312e+003
3.335901e+002, 1.139247e+003
3.336885e+002, 1.065188e+003
3.337869e+002, 1.138441e+003
3.338853e+002, 1.085753e+003
3.339836e+002, 1.194624e+003
3.340820e+002, 1.085753e+003
3.341803e+002, 1.057661e+003
3.342787e+002, 1.106048e+003
3.343770e+002, 1.146640e+003
3.344754e+002, 1.134543e+003
3.345738e+002, 1.053763e+003
3.346721e+002, 1.183333e+003
3.347705e+002, 1.112500e+003
3.348688e+002, 1.147581e+003
3.349672e+002, 1.158602e+003
3.350656e+002, 1.151882e+003
3.351639e+002, 1.151882e+003
3.352623e+002, 1.151882e+003
#ENDOFDATA   : End Of Data and File